TEST SETUP,
GENESYS 10S Vis v4.003 2D9Q151001,
,
Scanning,2:54am 3Mar18
Test Name ,UV[Saved]
Measurement Mode,Absorbance
Start Wavelength,325nm
Stop Wavelength,1100nm
Sample Positioner,1-Cell Platform
Scan Speed,Slow
ID# (0=OFF),1
Auto Save Data,On
Data File Name,213S
,
,
ID#,2
Wavelength,Abs
325,0.103
326,0.106
327,0.107
328,0.109
329,0.11
330,0.112
331,0.114
332,0.115
333,0.117
334,0.119
335,0.122
336,0.124
337,0.127
338,0.13
339,0.132
340,0.133
341,0.135
342,0.135
343,0.135
344,0.134
345,0.133
346,0.133
347,0.132
348,0.13
349,0.13
350,0.129
351,0.128
352,0.128
353,0.127
354,0.127
355,0.126
356,0.125
357,0.124
358,0.12
359,0.116
360,0.11
361,0.102
362,0.093
363,0.085
364,0.076
365,0.07
366,0.064
367,0.059
368,0.056
369,0.052
370,0.05
371,0.048
372,0.046
373,0.045
374,0.043
375,0.043
376,0.041
377,0.04
378,0.04
379,0.039
380,0.038
381,0.038
382,0.037
383,0.037
384,0.036
385,0.036
386,0.035
387,0.034
388,0.034
389,0.033
390,0.033
391,0.032
392,0.031
393,0.031
394,0.03
395,0.029
396,0.028
397,0.027
398,0.026
399,0.025
400,0.024
401,0.023
402,0.022
403,0.021
404,0.02
405,0.02
406,0.019
407,0.018
408,0.018
409,0.018
410,0.017
411,0.017
412,0.017
413,0.017
414,0.017
415,0.017
416,0.017
417,0.017
418,0.018
419,0.018
420,0.019
421,0.019
422,0.019
423,0.02
424,0.02
425,0.021
426,0.022
427,0.022
428,0.023
429,0.024
430,0.025
431,0.026
432,0.027
433,0.028
434,0.029
435,0.03
436,0.031
437,0.032
438,0.034
439,0.035
440,0.036
441,0.038
442,0.039
443,0.041
444,0.042
445,0.044
446,0.046
447,0.047
448,0.049
449,0.051
450,0.053
451,0.055
452,0.057
453,0.059
454,0.061
455,0.064
456,0.066
457,0.068
458,0.071
459,0.073
460,0.076
461,0.079
462,0.082
463,0.084
464,0.087
465,0.09
466,0.093
467,0.096
468,0.1
469,0.103
470,0.106
471,0.109
472,0.112
473,0.115
474,0.118
475,0.122
476,0.125
477,0.128
478,0.13
479,0.134
480,0.136
481,0.139
482,0.142
483,0.145
484,0.148
485,0.151
486,0.154
487,0.158
488,0.162
489,0.165
490,0.169
491,0.173
492,0.178
493,0.182
494,0.186
495,0.191
496,0.196
497,0.201
498,0.206
499,0.211
500,0.216
501,0.221
502,0.226
503,0.231
504,0.235
505,0.24
506,0.244
507,0.248
508,0.252
509,0.255
510,0.258
511,0.26
512,0.261
513,0.262
514,0.262
515,0.261
516,0.26
517,0.258
518,0.256
519,0.254
520,0.251
521,0.249
522,0.247
523,0.246
524,0.245
525,0.244
526,0.244
527,0.245
528,0.246
529,0.247
530,0.248
531,0.25
532,0.253
533,0.255
534,0.258
535,0.261
536,0.264
537,0.267
538,0.27
539,0.273
540,0.276
541,0.279
542,0.282
543,0.285
544,0.287
545,0.289
546,0.291
547,0.293
548,0.293
549,0.293
550,0.292
551,0.291
552,0.287
553,0.282
554,0.276
555,0.267
556,0.258
557,0.246
558,0.232
559,0.217
560,0.2
561,0.183
562,0.165
563,0.147
564,0.129
565,0.113
566,0.097
567,0.084
568,0.072
569,0.061
570,0.053
571,0.045
572,0.039
573,0.033
574,0.028
575,0.024
576,0.021
577,0.018
578,0.016
579,0.014
580,0.013
581,0.011
582,0.01
583,0.009
584,0.008
585,0.008
586,0.007
587,0.007
588,0.006
589,0.006
590,0.005
591,0.005
592,0.005
593,0.005
594,0.004
595,0.004
596,0.004
597,0.004
598,0.004
599,0.003
600,0.003
601,0.003
602,0.003
603,0.003
604,0.003
605,0.003
606,0.003
607,0.003
608,0.003
609,0.003
610,0.002
611,0.002
612,0.002
613,0.002
614,0.002
615,0.002
616,0.002
617,0.002
618,0.002
619,0.002
620,0.002
621,0.002
622,0.002
623,0.002
624,0.002
625,0.002
626,0.002
627,0.002
628,0.002
629,0.002
630,0.002
631,0.002
632,0.002
633,0.002
634,0.002
635,0.002
636,0.002
637,0.002
638,0.002
639,0.001
640,0.001
641,0.001
642,0.001
643,0.001
644,0.001
645,0.001
646,0.001
647,0.001
648,0.001
649,0.001
650,0.002
651,0.002
652,0.002
653,0.002
654,0.002
655,0.002
656,0.002
657,0.001
658,0.001
659,0.001
660,0.001
661,0.001
662,0.002
663,0.002
664,0.003
665,0.003
666,0.004
667,0.004
668,0.003
669,0.004
670,0.003
671,0.003
672,0.003
673,0.002
674,0.002
675,0.002
676,0.001
677,0.001
678,0.001
679,0.001
680,0.001
681,0.001
682,0.001
683,0.001
684,0.001
685,0.001
686,0.001
687,0.001
688,0.001
689,0.001
690,0.001
691,0.001
692,0.001
693,0.001
694,0.001
695,0.001
696,0.001
697,0.001
698,0.001
699,0.001
700,0.001
701,0.001
702,0.001
703,0.001
704,0.001
705,0.001
706,0.001
707,0.001
708,0.001
709,0.001
710,0.001
711,0.001
712,0.001
713,0.001
714,0.001
715,0.001
716,0.001
717,0.001
718,0.001
719,0.001
720,0.001
721,0.001
722,0.001
723,0.001
724,0.001
725,0.001
726,0.001
727,0.001
728,0.001
729,0.001
730,0.001
731,0.001
732,0.001
733,0.001
734,0.001
735,0.001
736,0.001
737,0.001
738,0.001
739,0.001
740,0.001
741,0.001
742,0.001
743,0.001
744,0.001
745,0.001
746,0.001
747,0.001
748,0.001
749,0.001
750,0.001
751,0.001
752,0.001
753,0.001
754,0.001
755,0.001
756,0.001
757,0.001
758,0.001
759,0
760,0
761,0
762,0
763,0
764,0
765,0
766,0
767,0
768,0
769,0
770,0
771,0
772,0
773,0
774,0
775,0
776,0
777,0
778,0
779,0
780,0
781,0
782,0
783,0
784,0
785,0
786,0
787,0
788,0
789,0
790,0
791,0
792,0
793,0
794,0
795,0
796,0
797,0
798,0
799,0
800,0
801,0
802,0
803,0
804,0
805,0
806,0
807,0
808,0
809,0
810,0
811,0
812,0
813,0
814,0
815,0
816,0
817,0
818,0
819,0
820,0
821,0
822,0
823,0
824,0
825,0
826,0
827,0
828,0
829,0
830,0
831,0
832,0
833,0
834,0
835,0
836,0
837,0
838,0
839,0
840,0
841,0
842,0
843,0
844,0
845,0
846,0
847,0
848,0
849,0
850,0
851,0
852,0
853,0
854,0
855,0
856,0
857,0
858,0
859,0
860,0
861,0
862,0
863,0
864,0
865,0
866,0
867,0
868,0
869,0.001
870,0.001
871,0.001
872,0.001
873,0.001
874,0.001
875,0.001
876,0.001
877,0.001
878,0.001
879,0.002
880,0.002
881,0.002
882,0.002
883,0.002
884,0.002
885,0.002
886,0.002
887,0.002
888,0.002
889,0.002
890,0.001
891,0.001
892,0.001
893,0.001
894,0.001
895,0.001
896,0.001
897,0.001
898,0.001
899,0.001
900,0.001
901,0.001
902,0.001
903,0.001
904,0.001
905,0.001
906,0
907,0.001
908,0
909,0
910,0
911,0
912,0
913,0
914,0
915,0
916,0.001
917,0.001
918,0.001
919,0
920,0.001
921,0.001
922,0
923,0
924,0
925,0
926,0
927,0
928,0
929,0
930,0
931,0
932,0
933,0
934,0
935,0
936,0
937,0
938,0
939,0
940,0
941,0
942,0
943,0
944,0
945,0
946,0
947,0
948,0
949,0
950,0
951,0
952,0
953,0
954,0
955,0
956,0
957,0
958,0
959,0
960,0
961,0
962,0
963,0
964,0
965,0
966,0
967,0
968,0
969,0
970,0
971,0
972,0
973,0
974,0
975,0
976,0
977,0
978,0
979,0
980,0
981,0
982,0
983,0
984,0
985,0
986,0
987,0
988,0
989,0
990,0
991,-0.001
992,-0.001
993,-0.001
994,-0.001
995,-0.001
996,-0.001
997,-0.001
998,-0.001
999,-0.001
1000,-0.001
1001,-0.001
1002,-0.001
1003,-0.001
1004,-0.001
1005,-0.001
1006,-0.002
1007,-0.002
1008,-0.002
1009,-0.002
1010,-0.002
1011,-0.003
1012,-0.003
1013,-0.004
1014,-0.004
1015,-0.004
1016,-0.004
1017,-0.003
1018,-0.003
1019,-0.002
1020,-0.001
1021,-0.001
1022,-0.001
1023,-0.001
1024,-0.001
1025,-0.002
1026,-0.002
1027,-0.003
1028,-0.003
1029,-0.003
1030,-0.003
1031,-0.004
1032,-0.004
1033,-0.004
1034,-0.004
1035,-0.004
1036,-0.004
1037,-0.004
1038,-0.005
1039,-0.005
1040,-0.005
1041,-0.005
1042,-0.005
1043,-0.005
1044,-0.005
1045,-0.005
1046,-0.005
1047,-0.005
1048,-0.005
1049,-0.005
1050,-0.005
1051,-0.006
1052,-0.006
1053,-0.006
1054,-0.006
1055,-0.007
1056,-0.007
1057,-0.008
1058,-0.008
1059,-0.008
1060,-0.008
1061,-0.008
1062,-0.007
1063,-0.007
1064,-0.007
1065,-0.008
1066,-0.008
1067,-0.008
1068,-0.008
1069,-0.008
1070,-0.008
1071,-0.008
1072,-0.008
1073,-0.008
1074,-0.008
1075,-0.008
1076,-0.008
1077,-0.008
1078,-0.008
1079,-0.008
1080,-0.008
1081,-0.008
1082,-0.008
1083,-0.008
1084,-0.008
1085,-0.008
1086,-0.008
1087,-0.008
1088,-0.008
1089,-0.008
1090,-0.008
1091,-0.009
1092,-0.009
1093,-0.009
1094,-0.009
1095,-0.009
1096,-0.009
1097,-0.009
1098,-0.009
1099,-0.008
1100,-0.008
